* Sea-Bird SBE19plus  Data File:
* FileName = C:\seabirdscientific\tests\resources\test-data\SBE19plus_01906398_2019_07_15_0033.hex
* Software version 2.8.0.119
* Temperature SN = 6398
* Conductivity SN = 6398
* System UpLoad Time = Jul 15 2019 10:56:00
* <ApplicationData>
* <Seaterm232>
* <SoftwareVersion>2.8.0.119</SoftwareVersion>
* <BuildDate>07-Nov-2018</BuildDate>
* </Seaterm232>
* </ApplicationData>
* <InstrumentState>
* <HardwareData DeviceType='SBE19plus' SerialNumber='01906398'>
*
*    <Manufacturer>Sea-Bird Electronics, Inc.</Manufacturer>
*
*    <FirmwareVersion>2.5.2</FirmwareVersion>
*
*    <FirmwareDate>12 Mar 2013 11:50</FirmwareDate>
*
*    <CommandSetVersion>1.3</CommandSetVersion>
*
*    <PCBAssembly PCBSerialNum='9270' AssemblyNum='41054G'/>
*
*    <PCBAssembly PCBSerialNum='9117' AssemblyNum='41580B'/>
*
*    <PCBAssembly PCBSerialNum='11030' AssemblyNum='41606'/>
*
*    <PCBAssembly PCBSerialNum='10002' AssemblyNum='41059D'/>
*
*    <MfgDate>07  AUG   2009</MfgDate>
*
*    <InternalSensors>
*
*       <Sensor id='Main Temperature'>
*
*          <type>temperature0</type>
*
*          <SerialNumber>01906398</SerialNumber>
*
*       </Sensor>
*
*       <Sensor id='Main Conductivity'>
*
*          <type>conductivity-0</type>
*
*          <SerialNumber>01906398</SerialNumber>
*
*       </Sensor>
*
*       <Sensor id='Main Pressure'>
*
*          <type>strain-0</type>
*
*          <SerialNumber> 2945715</SerialNumber>
*
*       </Sensor>
*
*    </InternalSensors>
*
*    <ExternalSensors>
*
*       <Sensor id='volt 0'>
*
*          <type>SBE 43 OXY</type>
*
*          <SerialNumber>431686</SerialNumber>
*
*       </Sensor>
*
*       <Sensor id='volt 1'>
*
*          <type>not assigned</type>
*
*          <SerialNumber>not assigned</SerialNumber>
*
*       </Sensor>
*
*       <Sensor id='volt 2'>
*
*          <type>SBE 18 pH</type>
*
*          <SerialNumber>180726</SerialNumber>
*
*       </Sensor>
*
*       <Sensor id='volt 3'>
*
*          <type>not assigned</type>
*
*          <SerialNumber>not assigned</SerialNumber>
*
*       </Sensor>
*
*       <Sensor id='volt 4'>
*
*          <type>not assigned</type>
*
*          <SerialNumber>not assigned</SerialNumber>
*
*       </Sensor>
*
*       <Sensor id='volt 5'>
*
*          <type>not assigned</type>
*
*          <SerialNumber>not assigned</SerialNumber>
*
*       </Sensor>
*
*       <Sensor id='serial'>
*
*          <type>not assigned</type>
*
*          <SerialNumber>not assigned</SerialNumber>
*
*       </Sensor>
*
*    </ExternalSensors>
*
* </HardwareData>
* <StatusData DeviceType='SBE19plus' SerialNumber='01906398'>
*
*    <DateTime>2019-07-15T14:55:31</DateTime>
*
*    <LoggingState>not logging</LoggingState>
*
*    <EventSummary numEvents='0'/>
*
*    <Power>
*
*       <vMain>12.9</vMain>
*
*       <vLith>8.1</vLith>
*
*       <iMain>60.9</iMain>
*
*       <iPump>37.8</iPump>
*
*       <iExt01> 5.2</iExt01>
*
*       <iExt2345> 7.7</iExt2345>
*
*    </Power>
*
*    <MemorySummary>
*
*       <Bytes>800730</Bytes>
*
*       <Samples>53382</Samples>
*
*       <SamplesFree>4333160</SamplesFree>
*
*       <SampleLength>15</SampleLength>
*
*       <Profiles>36</Profiles>
*
*    </MemorySummary>
*
* </StatusData>
* <ConfigurationData DeviceType='SBE19plus' SerialNumber='01906398'>
*
*    <ProfileMode>
*
*       <ScansToAverage>1</ScansToAverage>
*
*       <MinimumCondFreq>3031</MinimumCondFreq>
*
*       <PumpDelay>60</PumpDelay>
*
*       <AutoRun>no</AutoRun>
*
*       <IgnoreSwitch>no</IgnoreSwitch>
*
*    </ProfileMode>
*
*    <Battery>
*
*       <Type>alkaline</Type>
*
*       <CutOff>7.5</CutOff>
*
*    </Battery>
*
*    <DataChannels>
*
*       <ExtVolt0>yes</ExtVolt0>
*
*       <ExtVolt1>no</ExtVolt1>
*
*       <ExtVolt2>yes</ExtVolt2>
*
*       <ExtVolt3>no</ExtVolt3>
*
*       <ExtVolt4>no</ExtVolt4>
*
*       <ExtVolt5>no</ExtVolt5>
*
*       <SBE38>no</SBE38>
*
*       <WETLABS>no</WETLABS>
*
*       <OPTODE>no</OPTODE>
*
*       <SBE63>no</SBE63>
*
*       <GTD>no</GTD>
*
*    </DataChannels>
*
*    <EchoCharacters>yes</EchoCharacters>
*
*    <OutputExecutedTag>yes</OutputExecutedTag>
*
*    <OutputFormat>raw HEX</OutputFormat>
*
* </ConfigurationData>
* <CalibrationCoefficients DeviceType='SBE19plus' SerialNumber='01906398'>
*
*    <Calibration format='TEMP1' id='Main Temperature'>
*
*       <SerialNum>01906398</SerialNum>
*
*       <CalDate>28-Jul-18</CalDate>
*
*       <TA0>1.260959e-03</TA0>
*
*       <TA1>2.591380e-04</TA1>
*
*       <TA2>-1.767619e-07</TA2>
*
*       <TA3>1.436997e-07</TA3>
*
*       <TOFFSET>0.000000e+00</TOFFSET>
*
*    </Calibration>
*
*    <Calibration format='WBCOND0' id='Main Conductivity'>
*
*       <SerialNum>01906398</SerialNum>
*
*       <CalDate>28-Jul-18</CalDate>
*
*       <G>-1.032066e+00</G>
*
*       <H>1.618533e-01</H>
*
*       <I>-6.162699e-04</I>
*
*       <J>6.881150e-05</J>
*
*       <CPCOR>-9.570000e-08</CPCOR>
*
*       <CTCOR>3.250000e-06</CTCOR>
*
*       <CSLOPE>1.000000e+00</CSLOPE>
*
*    </Calibration>
*
*    <Calibration format='STRAIN0' id='Main Pressure'>
*
*       <SerialNum> 2945715</SerialNum>
*
*       <CalDate>26-Jul-18</CalDate>
*
*       <PA0>-2.384401e-01</PA0>
*
*       <PA1>4.878331e-04</PA1>
*
*       <PA2>-5.821914e-12</PA2>
*
*       <PTCA0>5.244422e+05</PTCA0>
*
*       <PTCA1>-2.996721e+01</PTCA1>
*
*       <PTCA2>3.563378e-01</PTCA2>
*
*       <PTCB0>2.500613e+01</PTCB0>
*
*       <PTCB1>-7.750000e-04</PTCB1>
*
*       <PTCB2>0.000000e+00</PTCB2>
*
*       <PTEMPA0>-6.743632e+01</PTEMPA0>
*
*       <PTEMPA1>5.322650e+01</PTEMPA1>
*
*       <PTEMPA2>-5.033771e-01</PTEMPA2>
*
*       <POFFSET>0.000000e+00</POFFSET>
*
*       <PRANGE>1.600000e+02</PRANGE>
*
*    </Calibration>
*
*    <Calibration format='VOLT0' id='Volt 0'>
*
*       <OFFSET>-4.502316e-02</OFFSET>
*
*       <SLOPE>1.250388e+00</SLOPE>
*
*    </Calibration>
*
*    <Calibration format='VOLT0' id='Volt 1'>
*
*       <OFFSET>-4.554316e-02</OFFSET>
*
*       <SLOPE>1.250640e+00</SLOPE>
*
*    </Calibration>
*
*    <Calibration format='VOLT0' id='Volt 2'>
*
*       <OFFSET>-4.476105e-02</OFFSET>
*
*       <SLOPE>1.250449e+00</SLOPE>
*
*    </Calibration>
*
*    <Calibration format='VOLT0' id='Volt 3'>
*
*       <OFFSET>-4.540210e-02</OFFSET>
*
*       <SLOPE>1.250253e+00</SLOPE>
*
*    </Calibration>
*
*    <Calibration format='VOLT0' id='Volt 4'>
*
*       <OFFSET>-4.589369e-02</OFFSET>
*
*       <SLOPE>1.250627e+00</SLOPE>
*
*    </Calibration>
*
*    <Calibration format='VOLT0' id='Volt 5'>
*
*       <OFFSET>-4.496105e-02</OFFSET>
*
*       <SLOPE>1.250115e+00</SLOPE>
*
*    </Calibration>
*
*    <Calibration format='FREQ0' id='external frequency channel'>
*
*       <EXTFREQSF>9.999961e-01</EXTFREQSF>
*
*    </Calibration>
*
* </CalibrationCoefficients>
* <EventCounters DeviceType='SBE19plus' SerialNumber='01906398'>
*
*    <EventSummary numEvents='0'/>
*
* </EventCounters></InstrumentState>
* <Headers>
*
* cast  33 02 Jul 2019 15:46:41 samples 49934 to 50915, avg = 1, stop = mag switch
*
# nquan = 7
# nvalues = 982                                   
# units = specified
# name 0 = prdM: Pressure, Strain Gauge [db]
# name 1 = tv290C: Temperature [ITS-90, deg C]
# name 2 = c0S/m: Conductivity [S/m]
# name 3 = sal00: Salinity, Practical [PSU]
# name 4 = sbeox0V: Oxygen raw, SBE 43 [V]
# name 5 = ph: pH
# name 6 = flag:  0.000e+00
# span 0 =     -0.021,     22.513                 
# span 1 =    22.9080,    26.7968                 
# span 2 =   0.049819,   2.773892                 
# span 3 =     0.2350,    17.7849                 
# span 4 =     0.5645,     3.5873                 
# span 5 =      7.481,      8.629                 
# span 6 = 0.0000e+00, 0.0000e+00                 
# interval = seconds: 0.25
# start_time = Jul 02 2019 15:46:41 [Instrument's time stamp, header]
# bad_flag = -9.990e-29
# <Sensors count="5" >
#   <sensor Channel="1" >
#     <!-- Count, Temperature -->
#     <TemperatureSensor SensorID="58" >
#       <SerialNumber>6398</SerialNumber>
#       <CalibrationDate>28-Jul-18</CalibrationDate>
#       <A0>1.26095907e-003</A0>
#       <A1>2.59137989e-004</A1>
#       <A2>-1.76761879e-007</A2>
#       <A3>1.43699673e-007</A3>
#       <Slope>1.00000000</Slope>
#       <Offset>0.0000</Offset>
#     </TemperatureSensor>
#   </sensor>
#   <sensor Channel="2" >
#     <!-- Frequency 0, Conductivity -->
#     <ConductivitySensor SensorID="3" >
#       <SerialNumber>6398</SerialNumber>
#       <CalibrationDate>28-Jul-18</CalibrationDate>
#       <UseG_J>1</UseG_J>
#       <!-- Cell const and series R are applicable only for wide range sensors. -->
#       <SeriesR>0.0000</SeriesR>
#       <CellConst>2000.0000</CellConst>
#       <ConductivityType>0</ConductivityType>
#       <Coefficients equation="0" >
#         <A>0.00000000e+000</A>
#         <B>0.00000000e+000</B>
#         <C>0.00000000e+000</C>
#         <D>0.00000000e+000</D>
#         <M>0.0</M>
#         <CPcor>-9.57000000e-008</CPcor>
#       </Coefficients>
#       <Coefficients equation="1" >
#         <G>-1.03206551e+000</G>
#         <H>1.61853283e-001</H>
#         <I>-6.16269794e-004</I>
#         <J>6.88114987e-005</J>
#         <CPcor>-9.57000000e-008</CPcor>
#         <CTcor>3.2500e-006</CTcor>
#         <!-- WBOTC not applicable unless ConductivityType = 1. -->
#         <WBOTC>0.00000000e+000</WBOTC>
#       </Coefficients>
#       <Slope>1.00000000</Slope>
#       <Offset>0.00000</Offset>
#     </ConductivitySensor>
#   </sensor>
#   <sensor Channel="3" >
#     <!-- Count, Pressure, Strain Gauge -->
#     <PressureSensor SensorID="46" >
#       <SerialNumber>6398</SerialNumber>
#       <CalibrationDate>26-Jul-18</CalibrationDate>
#       <PA0>-2.38440127e-001</PA0>
#       <PA1>4.87833137e-004</PA1>
#       <PA2>-5.82191388e-012</PA2>
#       <PTEMPA0>-6.74363150e+001</PTEMPA0>
#       <PTEMPA1>5.32265012e+001</PTEMPA1>
#       <PTEMPA2>-5.03377089e-001</PTEMPA2>
#       <PTCA0>5.24442060e+005</PTCA0>
#       <PTCA1>-2.99672123e+001</PTCA1>
#       <PTCA2>3.56337762e-001</PTCA2>
#       <PTCB0>2.50061250e+001</PTCB0>
#       <PTCB1>-7.75000000e-004</PTCB1>
#       <PTCB2>0.00000000e+000</PTCB2>
#       <Offset>0.000000</Offset>
#     </PressureSensor>
#   </sensor>
#   <sensor Channel="4" >
#     <!-- A/D voltage 0, Oxygen, SBE 43 -->
#     <OxygenSensor SensorID="38" >
#       <SerialNumber>431686</SerialNumber>
#       <CalibrationDate></CalibrationDate>
#       <Use2007Equation>1</Use2007Equation>
#       <CalibrationCoefficients equation="0" >
#         <!-- Coefficients for Owens-Millard equation. -->
#         <Boc>0.0000</Boc>
#         <Soc>0.0000e+000</Soc>
#         <offset>0.0000</offset>
#         <Pcor>0.00e+000</Pcor>
#         <Tcor>0.0000</Tcor>
#         <Tau>0.0</Tau>
#       </CalibrationCoefficients>
#       <CalibrationCoefficients equation="1" >
#         <!-- Coefficients for Sea-Bird equation - SBE calibration in 2007 and later. -->
#         <Soc>3.8980e-001</Soc>
#         <offset>-0.4980</offset>
#         <A>-3.3982e-003</A>
#         <B> 1.5817e-004</B>
#         <C>-2.6651e-006</C>
#         <D0> 2.5826e+000</D0>
#         <D1> 1.92634e-004</D1>
#         <D2>-4.64803e-002</D2>
#         <E> 3.6000e-002</E>
#         <Tau20> 1.0800</Tau20>
#         <H1>-3.3000e-002</H1>
#         <H2> 5.0000e+003</H2>
#         <H3> 1.4500e+003</H3>
#       </CalibrationCoefficients>
#     </OxygenSensor>
#   </sensor>
#   <sensor Channel="5" >
#     <!-- A/D voltage 1, pH -->
#     <pH_Sensor SensorID="43" >
#       <SerialNumber>180726</SerialNumber>
#       <CalibrationDate></CalibrationDate>
#       <Slope>4.6067</Slope>
#       <Offset>2.5157</Offset>
#     </pH_Sensor>
#   </sensor>
# </Sensors>
# datcnv_date = Oct 08 2020 08:59:09, 7.26.7.129 [datcnv_vars = 6]
# datcnv_in = C:\seabirdscientific\tests\resources\test-data\SBE19plus_01906398_2019_07_15_0033.hex C:\seabirdscientific\tests\resources\test-data\SBE19plusV2_6398.xmlcon
# datcnv_skipover = 0
# datcnv_ox_hysteresis_correction = yes
# file_type = ascii
*END*
     -0.012    25.3427   0.089667     0.4373     2.5575      7.650  0.000e+00
     -0.012    25.3408   0.113648     0.5592     2.5586      7.653  0.000e+00
     -0.012    25.3387   0.118966     0.5865     2.5606      7.651  0.000e+00
     -0.011    25.3363   0.103895     0.5095     2.5627      7.652  0.000e+00
     -0.011    25.3341   0.094561     0.4621     2.5638      7.650  0.000e+00
     -0.012    25.3326   0.084609     0.4119     2.5637      7.646  0.000e+00
     -0.012    25.3316   0.080956     0.3936     2.5635      7.645  0.000e+00
     -0.011    25.3302   0.071491     0.3463     2.5629      7.653  0.000e+00
      0.107    25.3377   0.890294     4.9297     2.5621      7.896  0.000e+00
      0.351    25.5433   1.157493     6.5098     2.5618      8.113  0.000e+00
      0.473    25.9030   1.166377     6.5130     2.5610      8.234  0.000e+00
      0.558    26.1913   1.166108     6.4713     2.5618      8.307  0.000e+00
      0.624    26.3816   1.165435     6.4411     2.5636      8.347  0.000e+00
      0.645    26.5037   1.164109     6.4165     2.5666      8.374  0.000e+00
      0.655    26.5790   1.164053     6.4059     2.5726      8.391  0.000e+00
      0.697    26.6218   1.164535     6.4029     2.5803      8.403  0.000e+00
      0.741    26.6460   1.164294     6.3982     2.5873      8.412  0.000e+00
      0.758    26.6600   1.162427     6.3852     2.5954      8.423  0.000e+00
      0.761    26.6690   1.162163     6.3824     2.6029      8.430  0.000e+00
      0.749    26.6763   1.161603     6.3781     2.6102      8.437  0.000e+00
      0.730    26.6799   1.161751     6.3785     2.6166      8.443  0.000e+00
      0.729    26.6817   1.162969     6.3855     2.6235      8.452  0.000e+00
      0.736    26.6834   1.163650     6.3893     2.6265      8.457  0.000e+00
      0.748    26.6830   1.164155     6.3923     2.6417      8.463  0.000e+00
      0.758    26.6831   1.164183     6.3925     2.6888      8.470  0.000e+00
      0.757    26.6853   1.163835     6.3901     2.7729      8.473  0.000e+00
      0.742    26.6896   1.163233     6.3860     2.8505      8.480  0.000e+00
      0.723    26.6955   1.162988     6.3837     2.9072      8.485  0.000e+00
      0.717    26.7024   1.163942     6.3884     2.9343      8.491  0.000e+00
      0.726    26.7071   1.164317     6.3900     2.9423      8.494  0.000e+00
      0.745    26.7057   1.164271     6.3899     2.9431      8.500  0.000e+00
      0.771    26.7018   1.163673     6.3869     2.9577      8.505  0.000e+00
      0.798    26.6994   1.162918     6.3828     2.9903      8.510  0.000e+00
      0.821    26.7020   1.162312     6.3788     3.0216      8.513  0.000e+00
      0.829    26.7064   1.161978     6.3763     3.0327      8.515  0.000e+00
      0.819    26.7106   1.162853     6.3809     3.0296      8.520  0.000e+00
      0.794    26.7133   1.162700     6.3796     3.0188      8.520  0.000e+00
      0.761    26.7126   1.162937     6.3811     3.0071      8.525  0.000e+00
      0.740    26.7126   1.163631     6.3852     2.9908      8.528  0.000e+00
      0.730    26.7142   1.163942     6.3868     2.9725      8.530  0.000e+00
      0.739    26.7134   1.164285     6.3890     2.9535      8.533  0.000e+00
      0.766    26.7114   1.163868     6.3868     2.9340      8.540  0.000e+00
      0.796    26.7091   1.162261     6.3776     2.9174      8.543  0.000e+00
      0.820    26.7093   1.160904     6.3695     2.9084      8.543  0.000e+00
      0.824    26.7109   1.161034     6.3701     2.8995      8.543  0.000e+00
      0.817    26.7121   1.162061     6.3760     2.8911      8.547  0.000e+00
      0.812    26.7119   1.163441     6.3842     2.8895      8.551  0.000e+00
      0.813    26.7140   1.164479     6.3900     2.8941      8.551  0.000e+00
      0.822    26.7148   1.164725     6.3914     2.9027      8.557  0.000e+00
      0.835    26.7135   1.164674     6.3913     2.9106      8.556  0.000e+00
      0.838    26.7129   1.164271     6.3890     2.9095      8.559  0.000e+00
      0.827    26.7129   1.163854     6.3865     2.9036      8.561  0.000e+00
      0.809    26.7135   1.163353     6.3834     2.8962      8.561  0.000e+00
      0.791    26.7166   1.163529     6.3841     2.8909      8.565  0.000e+00
      0.782    26.7207   1.164155     6.3872     2.8949      8.563  0.000e+00
      0.780    26.7248   1.164405     6.3881     2.9062      8.564  0.000e+00
      0.786    26.7277   1.164349     6.3874     2.9239      8.565  0.000e+00
      0.796    26.7273   1.163826     6.3844     2.9367      8.565  0.000e+00
      0.800    26.7237   1.161385     6.3704     2.9460      8.571  0.000e+00
      0.795    26.7239   1.160686     6.3663     2.9514      8.570  0.000e+00
      0.791    26.7255   1.161487     6.3708     2.9510      8.575  0.000e+00
      0.799    26.7225   1.163423     6.3826     2.9484      8.576  0.000e+00
      0.816    26.7199   1.164373     6.3886     2.9513      8.575  0.000e+00
      0.830    26.7176   1.163585     6.3843     2.9622      8.579  0.000e+00
      0.834    26.7138   1.161256     6.3710     2.9671      8.577  0.000e+00
      0.830    26.7143   1.160335     6.3655     2.9604      8.579  0.000e+00
      0.818    26.7031   1.161034     6.3711     2.9501      8.579  0.000e+00
      0.812    26.6823   1.162941     6.3852     2.9377      8.576  0.000e+00
      0.819    26.6700   1.164109     6.3938     2.9286      8.579  0.000e+00
      0.829    26.6719   1.164502     6.3959     2.9313      8.583  0.000e+00
      0.819    26.6794   1.162302     6.3818     2.9397      8.580  0.000e+00
      0.787    26.6884   1.160927     6.3725     2.9614      8.583  0.000e+00
      0.740    26.6936   1.160529     6.3694     2.9848      8.581  0.000e+00
      0.702    26.6836   1.162024     6.3796     2.9976      8.587  0.000e+00
      0.698    26.6760   1.163914     6.3919     3.0047      8.583  0.000e+00
      0.745    26.6755   1.165128     6.3991     3.0199      8.585  0.000e+00
      0.829    26.6824   1.164317     6.3934     3.0373      8.585  0.000e+00
      0.903    26.6927   1.161636     6.3761     3.0527      8.587  0.000e+00
      0.950    26.6994   1.161511     6.3744     3.0700      8.591  0.000e+00
      0.942    26.6624   1.161923     6.3819     3.0822      8.593  0.000e+00
      0.890    26.6122   1.161742     6.3876     3.1022      8.591  0.000e+00
      0.814    26.5808   1.161557     6.3908     3.1192      8.593  0.000e+00
      0.742    26.5621   1.162071     6.3964     3.1254      8.592  0.000e+00
      0.708    26.5503   1.162118     6.3983     3.1198      8.592  0.000e+00
      0.714    26.5505   1.162724     6.4018     3.1138      8.595  0.000e+00
      0.759    26.5690   1.163150     6.4019     3.1044      8.595  0.000e+00
      0.795    26.5954   1.162747     6.3959     3.1022      8.599  0.000e+00
      0.828    26.6182   1.161372     6.3846     3.1073      8.596  0.000e+00
      0.842    26.6359   1.161076     6.3805     3.1124      8.595  0.000e+00
      0.842    26.6290   1.160918     6.3805     3.1094      8.598  0.000e+00
      0.834    26.6003   1.161020     6.3850     3.1004      8.600  0.000e+00
      0.837    26.5773   1.161701     6.3921     3.0886      8.599  0.000e+00
      0.849    26.5671   1.162002     6.3953     3.0817      8.596  0.000e+00
      0.860    26.5694   1.161340     6.3911     3.0756      8.598  0.000e+00
      0.859    26.5752   1.160766     6.3869     3.0601      8.599  0.000e+00
      0.841    26.5792   1.160631     6.3855     3.0449      8.600  0.000e+00
      0.812    26.5675   1.160530     6.3865     3.0344      8.601  0.000e+00
      0.781    26.5430   1.160516     6.3898     3.0256      8.599  0.000e+00
      0.759    26.5256   1.160928     6.3946     3.0137      8.600  0.000e+00
      0.749    26.5187   1.161020     6.3961     2.9969      8.600  0.000e+00
      0.764    26.5218   1.161192     6.3966     2.9819      8.604  0.000e+00
      0.797    26.5366   1.160960     6.3933     2.9680      8.601  0.000e+00
      0.831    26.5533   1.160220     6.3866     2.9558      8.601  0.000e+00
      0.852    26.5680   1.160196     6.3845     2.9433      8.602  0.000e+00
      0.852    26.5740   1.160321     6.3844     2.9389      8.602  0.000e+00
      0.833    26.5537   1.160400     6.3876     2.9416      8.600  0.000e+00
      0.811    26.5281   1.160289     6.3904     2.9447      8.604  0.000e+00
      0.785    26.5064   1.160234     6.3930     2.9412      8.603  0.000e+00
      0.763    26.4906   1.160058     6.3942     2.9365      8.605  0.000e+00
      0.759    26.4806   1.160136     6.3960     2.9338      8.603  0.000e+00
      0.782    26.4755   1.160507     6.3989     2.9298      8.607  0.000e+00
      0.815    26.4757   1.160539     6.3990     2.9235      8.603  0.000e+00
      0.839    26.4870   1.160423     6.3968     2.9145      8.609  0.000e+00
      0.844    26.5029   1.159947     6.3918     2.9017      8.607  0.000e+00
      0.831    26.5187   1.160053     6.3903     2.8849      8.610  0.000e+00
      0.803    26.5300   1.160183     6.3895     2.8643      8.606  0.000e+00
      0.771    26.5224   1.160234     6.3909     2.8490      8.609  0.000e+00
      0.747    26.5038   1.160011     6.3921     2.8358      8.607  0.000e+00
      0.748    26.4883   1.159933     6.3937     2.8310      8.606  0.000e+00
      0.769    26.4797   1.160136     6.3961     2.8307      8.610  0.000e+00
      0.795    26.4771   1.160336     6.3976     2.8328      8.606  0.000e+00
      0.824    26.4891   1.160474     6.3968     2.8320      8.610  0.000e+00
      0.855    26.5150   1.160322     6.3924     2.8289      8.609  0.000e+00
      0.873    26.5397   1.159798     6.3859     2.8264      8.608  0.000e+00
      0.868    26.5596   1.159970     6.3843     2.8221      8.610  0.000e+00
      0.835    26.5646   1.160053     6.3841     2.8139      8.608  0.000e+00
      0.785    26.5352   1.160118     6.3884     2.8110      8.611  0.000e+00
      0.741    26.5031   1.160127     6.3929     2.8273      8.609  0.000e+00
      0.724    26.4777   1.159956     6.3953     2.8466      8.610  0.000e+00
      0.742    26.4641   1.160174     6.3985     2.8586      8.610  0.000e+00
      0.781    26.4595   1.160368     6.4002     2.8676      8.610  0.000e+00
      0.821    26.4600   1.160345     6.4000     2.8742      8.611  0.000e+00
      0.842    26.4717   1.160021     6.3965     2.8756      8.611  0.000e+00
      0.839    26.4883   1.160183     6.3952     2.8719      8.612  0.000e+00
      0.821    26.4976   1.160335     6.3949     2.8754      8.613  0.000e+00
      0.803    26.4875   1.160243     6.3957     2.8915      8.614  0.000e+00
      0.799    26.4734   1.160035     6.3964     2.9094      8.611  0.000e+00
      0.807    26.4611   1.159905     6.3973     2.9215      8.612  0.000e+00
      0.817    26.4530   1.159854     6.3981     2.9278      8.610  0.000e+00
      0.824    26.4481   1.159692     6.3978     2.9290      8.610  0.000e+00
      0.821    26.4448   1.159979     6.3999     2.9226      8.611  0.000e+00
      0.803    26.4412   1.160433     6.4031     2.9111      8.610  0.000e+00
      0.779    26.4353   1.160516     6.4044     2.9001      8.611  0.000e+00
      0.761    26.4331   1.160391     6.4040     2.8923      8.611  0.000e+00
      0.753    26.4328   1.160095     6.4022     2.8826      8.613  0.000e+00
      0.762    26.4308   1.159877     6.4012     2.8705      8.613  0.000e+00
      0.787    26.4280   1.159873     6.4016     2.8614      8.613  0.000e+00
      0.824    26.4254   1.159785     6.4014     2.8523      8.613  0.000e+00
      0.857    26.4251   1.159692     6.4009     2.8459      8.615  0.000e+00
      0.871    26.4250   1.159979     6.4026     2.8362      8.611  0.000e+00
      0.862    26.4240   1.161215     6.4101     2.8248      8.616  0.000e+00
      0.829    26.4198   1.161794     6.4141     2.8247      8.615  0.000e+00
      0.786    26.4219   1.162039     6.4153     2.8333      8.614  0.000e+00
      0.749    26.4333   1.162164     6.4145     2.8422      8.614  0.000e+00
      0.736    26.4405   1.161155     6.4075     2.8508      8.616  0.000e+00
      0.749    26.4438   1.160655     6.4041     2.8591      8.613  0.000e+00
      0.776    26.4431   1.160424     6.4028     2.8633      8.614  0.000e+00
      0.802    26.4416   1.160391     6.4028     2.8632      8.615  0.000e+00
      0.816    26.4396   1.160734     6.4051     2.8594      8.611  0.000e+00
      0.813    26.4385   1.161396     6.4092     2.8468      8.615  0.000e+00
      0.798    26.4376   1.162220     6.4142     2.8383      8.616  0.000e+00
      0.779    26.4335   1.162567     6.4169     2.8321      8.614  0.000e+00
      0.762    26.4325   1.162780     6.4183     2.8328      8.614  0.000e+00
      0.756    26.4368   1.162141     6.4139     2.8318      8.616  0.000e+00
      0.780    26.4414   1.161331     6.4084     2.8288      8.617  0.000e+00
      0.815    26.4418   1.160974     6.4062     2.8212      8.613  0.000e+00
      0.836    26.4393   1.161215     6.4080     2.8127      8.614  0.000e+00
      0.825    26.4361   1.161933     6.4127     2.8036      8.617  0.000e+00
      0.789    26.4339   1.162840     6.4184     2.7963      8.614  0.000e+00
      0.740    26.4330   1.163095     6.4201     2.8007      8.617  0.000e+00
      0.691    26.4391   1.162803     6.4175     2.8128      8.618  0.000e+00
      0.676    26.4436   1.161711     6.4104     2.8201      8.615  0.000e+00
      0.706    26.4438   1.161650     6.4100     2.8231      8.616  0.000e+00
      0.766    26.4493   1.162766     6.4159     2.8256      8.619  0.000e+00
      0.824    26.4812   1.164021     6.4190     2.8337      8.615  0.000e+00
      0.853    26.5258   1.163688     6.4109     2.8432      8.615  0.000e+00
      0.850    26.5649   1.163118     6.4022     2.8574      8.615  0.000e+00
      0.825    26.5947   1.162849     6.3966     2.8721      8.615  0.000e+00
      0.797    26.5972   1.162650     6.3951     2.8971      8.614  0.000e+00
      0.776    26.5763   1.162530     6.3972     2.9186      8.618  0.000e+00
      0.769    26.5553   1.162451     6.3996     2.9287      8.618  0.000e+00
      0.764    26.5421   1.162335     6.4007     2.9287      8.614  0.000e+00
      0.760    26.5352   1.162303     6.4014     2.9202      8.617  0.000e+00
      0.759    26.5325   1.162312     6.4019     2.9054      8.616  0.000e+00
      0.756    26.5334   1.162280     6.4015     2.8841      8.618  0.000e+00
      0.748    26.5366   1.162145     6.4003     2.8602      8.614  0.000e+00
      0.740    26.5383   1.162210     6.4005     2.8339      8.619  0.000e+00
      0.752    26.5403   1.162780     6.4036     2.8084      8.616  0.000e+00
      0.787    26.5457   1.163539     6.4073     2.7842      8.616  0.000e+00
      0.829    26.5632   1.164480     6.4105     2.7675      8.618  0.000e+00
      0.851    26.5910   1.164396     6.4062     2.7612      8.614  0.000e+00
      0.846    26.6164   1.163201     6.3957     2.7630      8.617  0.000e+00
      0.811    26.6403   1.162909     6.3907     2.7733      8.614  0.000e+00
      0.764    26.6402   1.162988     6.3912     2.7848      8.614  0.000e+00
      0.732    26.6089   1.163044     6.3958     2.7987      8.615  0.000e+00
      0.728    26.5813   1.163548     6.4025     2.8153      8.617  0.000e+00
      0.745    26.5697   1.163826     6.4058     2.8259      8.616  0.000e+00
      0.768    26.5668   1.163868     6.4064     2.8327      8.616  0.000e+00
      0.781    26.5787   1.163697     6.4038     2.8357      8.619  0.000e+00
      0.781    26.5970   1.163275     6.3988     2.8318      8.617  0.000e+00
      0.775    26.6142   1.163020     6.3949     2.8228      8.615  0.000e+00
      0.773    26.6298   1.162965     6.3925     2.8139      8.618  0.000e+00
      0.766    26.6434   1.162863     6.3900     2.8062      8.618  0.000e+00
      0.761    26.6485   1.162849     6.3893     2.7976      8.616  0.000e+00
      0.767    26.6433   1.162770     6.3895     2.7913      8.616  0.000e+00
      0.774    26.6364   1.162747     6.3903     2.7867      8.620  0.000e+00
      0.783    26.6318   1.162724     6.3908     2.7836      8.616  0.000e+00
      0.788    26.6314   1.162733     6.3909     2.7795      8.616  0.000e+00
      0.783    26.6323   1.162585     6.3899     2.7739      8.615  0.000e+00
      0.759    26.6321   1.162682     6.3905     2.7654      8.619  0.000e+00
      0.715    26.6223   1.162895     6.3931     2.7556      8.617  0.000e+00
      0.677    26.5928   1.162895     6.3971     2.7549      8.617  0.000e+00
      0.675    26.5656   1.163081     6.4019     2.7610      8.617  0.000e+00
      0.712    26.5496   1.163308     6.4054     2.7806      8.619  0.000e+00
      0.743    26.5488   1.163424     6.4062     2.8127      8.620  0.000e+00
      0.747    26.5658   1.163058     6.4017     2.8454      8.615  0.000e+00
      0.724    26.5835   1.162979     6.3989     2.8671      8.619  0.000e+00
      0.691    26.5960   1.162909     6.3968     2.8806      8.618  0.000e+00
      0.671    26.5878   1.162882     6.3977     2.9003      8.618  0.000e+00
      0.675    26.5738   1.163058     6.4007     2.9287      8.619  0.000e+00
      0.696    26.5652   1.163349     6.4036     2.9556      8.617  0.000e+00
      0.720    26.5617   1.163456     6.4047     2.9737      8.618  0.000e+00
      0.733    26.5645   1.163298     6.4034     2.9802      8.619  0.000e+00
      0.728    26.5713   1.162988     6.4006     2.9764      8.616  0.000e+00
      0.709    26.5787   1.162909     6.3991     2.9661      8.617  0.000e+00
      0.683    26.5801   1.162831     6.3985     2.9504      8.617  0.000e+00
      0.666    26.5700   1.162794     6.3996     2.9363      8.615  0.000e+00
      0.670    26.5550   1.162923     6.4024     2.9200      8.619  0.000e+00
      0.697    26.5447   1.163206     6.4055     2.9036      8.619  0.000e+00
      0.734    26.5409   1.163400     6.4072     2.8907      8.618  0.000e+00
      0.761    26.5455   1.163424     6.4067     2.8822      8.621  0.000e+00
      0.763    26.5552   1.163011     6.4029     2.8733      8.619  0.000e+00
      0.736    26.5692   1.162914     6.4004     2.8613      8.617  0.000e+00
      0.693    26.5729   1.162909     6.3999     2.8504      8.617  0.000e+00
      0.656    26.5591   1.162905     6.4018     2.8528      8.616  0.000e+00
      0.645    26.5432   1.163150     6.4054     2.8690      8.617  0.000e+00
      0.668    26.5342   1.163391     6.4080     2.8800      8.617  0.000e+00
      0.706    26.5332   1.163743     6.4103     2.8833      8.616  0.000e+00
      0.740    26.5505   1.164248     6.4109     2.8821      8.619  0.000e+00
      0.755    26.5789   1.163868     6.4048     2.8840      8.619  0.000e+00
      0.748    26.6052   1.163284     6.3977     2.8927      8.617  0.000e+00
      0.727    26.6294   1.163071     6.3932     2.8969      8.618  0.000e+00
      0.707    26.6316   1.163020     6.3926     2.8930      8.616  0.000e+00
      0.701    26.6184   1.163210     6.3955     2.8837      8.619  0.000e+00
      0.703    26.6047   1.163470     6.3989     2.8753      8.619  0.000e+00
      0.703    26.5989   1.163548     6.4002     2.8734      8.620  0.000e+00
      0.703    26.5975   1.163618     6.4008     2.8779      8.618  0.000e+00
      0.702    26.6002   1.163655     6.4006     2.8824      8.618  0.000e+00
      0.704    26.6067   1.163743     6.4003     2.8795      8.617  0.000e+00
      0.712    26.6152   1.166393     6.4148     2.8706      8.619  0.000e+00
      0.718    26.6376   1.167691     6.4195     2.8653      8.615  0.000e+00
      0.726    26.6794   1.167770     6.4142     2.9194      8.617  0.000e+00
      0.730    26.7136   1.167904     6.4104     3.0438      8.619  0.000e+00
      0.726    26.7363   1.167946     6.4075     3.1751      8.616  0.000e+00
      0.711    26.7509   1.167987     6.4058     3.2813      8.616  0.000e+00
      0.698    26.7602   1.167969     6.4044     3.3607      8.616  0.000e+00
      0.696    26.7654   1.167936     6.4035     3.4181      8.619  0.000e+00
      0.699    26.7684   1.167932     6.4031     3.4617      8.615  0.000e+00
      0.703    26.7703   1.167923     6.4028     3.4922      8.616  0.000e+00
      0.705    26.7713   1.167969     6.4029     3.5144      8.618  0.000e+00
      0.706    26.7723   1.168103     6.4036     3.5312      8.615  0.000e+00
      0.707    26.7746   1.168103     6.4033     3.5411      8.616  0.000e+00
      0.710    26.7775   1.168103     6.4029     3.5514      8.618  0.000e+00
      0.718    26.7792   1.168103     6.4026     3.5596      8.617  0.000e+00
      0.731    26.7799   1.168126     6.4027     3.5653      8.615  0.000e+00
      0.744    26.7805   1.168219     6.4031     3.5692      8.616  0.000e+00
      0.748    26.7820   1.168219     6.4029     3.5703      8.618  0.000e+00
      0.742    26.7835   1.168219     6.4027     3.5731      8.617  0.000e+00
      0.723    26.7839   1.168210     6.4026     3.5731      8.616  0.000e+00
      0.693    26.7841   1.168201     6.4025     3.5692      8.616  0.000e+00
      0.668    26.7839   1.168219     6.4027     3.5676      8.615  0.000e+00
      0.656    26.7838   1.168210     6.4026     3.5699      8.618  0.000e+00
      0.652    26.7841   1.168173     6.4024     3.5724      8.616  0.000e+00
      0.659    26.7835   1.168103     6.4021     3.5736      8.618  0.000e+00
      0.681    26.7818   1.168080     6.4021     3.5772      8.616  0.000e+00
      0.705    26.7802   1.168011     6.4020     3.5798      8.616  0.000e+00
      0.731    26.7784   1.168029     6.4023     3.5810      8.618  0.000e+00
      0.745    26.7770   1.167876     6.4016     3.5819      8.618  0.000e+00
      0.723    26.7752   1.167871     6.4018     3.5818      8.616  0.000e+00
      0.669    26.7731   1.167899     6.4023     3.5824      8.617  0.000e+00
      0.611    26.7718   1.167936     6.4027     3.5816      8.619  0.000e+00
      0.582    26.7716   1.167992     6.4030     3.5807      8.617  0.000e+00
      0.583    26.7725   1.167997     6.4029     3.5801      8.617  0.000e+00
      0.597    26.7733   1.167992     6.4028     3.5799      8.619  0.000e+00
      0.611    26.7736   1.167964     6.4026     3.5784      8.619  0.000e+00
      0.624    26.7737   1.167955     6.4025     3.5776      8.616  0.000e+00
      0.637    26.7733   1.167936     6.4025     3.5783      8.617  0.000e+00
      0.671    26.7725   1.167992     6.4029     3.5793      8.617  0.000e+00
      0.731    26.7729   1.168071     6.4033     3.5797      8.616  0.000e+00
      0.789    26.7747   1.168024     6.4028     3.5806      8.617  0.000e+00
      0.813    26.7762   1.168024     6.4026     3.5799      8.619  0.000e+00
      0.784    26.7772   1.168052     6.4026     3.5810      8.616  0.000e+00
      0.702    26.7780   1.168048     6.4025     3.5804      8.617  0.000e+00
      0.604    26.7785   1.168020     6.4022     3.5802      8.617  0.000e+00
      0.532    26.7776   1.168094     6.4028     3.5805      8.618  0.000e+00
      0.514    26.7779   1.168187     6.4033     3.5815      8.618  0.000e+00
      0.552    26.7792   1.168335     6.4040     3.5823      8.618  0.000e+00
      0.622    26.7828   1.168275     6.4032     3.5836      8.619  0.000e+00
      0.695    26.7853   1.168256     6.4027     3.5843      8.618  0.000e+00
      0.750    26.7874   1.168326     6.4028     3.5852      8.616  0.000e+00
      0.778    26.7906   1.168381     6.4027     3.5854      8.618  0.000e+00
      0.773    26.7933   1.168335     6.4021     3.5846      8.619  0.000e+00
      0.744    26.7949   1.168164     6.4009     3.5853      8.616  0.000e+00
      0.708    26.7939   1.167955     6.3998     3.5843      8.619  0.000e+00
      0.678    26.7901   1.167732     6.3990     3.5818      8.619  0.000e+00
      0.652    26.7845   1.167769     6.4000     3.5786      8.618  0.000e+00
      0.624    26.7805   1.167667     6.3999     3.5778      8.617  0.000e+00
      0.593    26.7775   1.167691     6.4004     3.5773      8.620  0.000e+00
      0.576    26.7758   1.167667     6.4005     3.5776      8.620  0.000e+00
      0.591    26.7743   1.167598     6.4003     3.5783      8.619  0.000e+00
      0.636    26.7729   1.166745     6.3955     3.5782      8.619  0.000e+00
      0.682    26.7644   1.166750     6.3966     3.5766      8.619  0.000e+00
      0.715    26.7560   1.167181     6.4003     3.5753      8.619  0.000e+00
      0.733    26.7542   1.167334     6.4015     3.5776      8.621  0.000e+00
      0.740    26.7569   1.167209     6.4004     3.5799      8.620  0.000e+00
      0.737    26.7585   1.167352     6.4010     3.5780      8.620  0.000e+00
      0.726    26.7601   1.167575     6.4021     3.5775      8.617  0.000e+00
      0.706    26.7640   1.167668     6.4021     3.5773      8.617  0.000e+00
      0.674    26.7688   1.167598     6.4011     3.5752      8.617  0.000e+00
      0.635    26.7725   1.167607     6.4006     3.5745      8.620  0.000e+00
      0.596    26.7749   1.167598     6.4002     3.5745      8.620  0.000e+00
      0.568    26.7767   1.167783     6.4011     3.5757      8.617  0.000e+00
      0.562    26.7780   1.167793     6.4010     3.5753      8.620  0.000e+00
      0.590    26.7790   1.167756     6.4006     3.5750      8.618  0.000e+00
      0.652    26.7794   1.167598     6.3996     3.5727      8.619  0.000e+00
      0.729    26.7782   1.166884     6.3956     3.5727      8.618  0.000e+00
      0.792    26.7701   1.166713     6.3957     3.5766      8.622  0.000e+00
      0.821    26.7592   1.166935     6.3984     3.5793      8.617  0.000e+00
      0.807    26.7536   1.166861     6.3988     3.5812      8.619  0.000e+00
      0.747    26.7504   1.167023     6.4002     3.5840      8.620  0.000e+00
      0.660    26.7496   1.167287     6.4018     3.5860      8.621  0.000e+00
      0.589    26.7532   1.167287     6.4014     3.5873      8.619  0.000e+00
      0.552    26.7570   1.167362     6.4013     3.5873      8.619  0.000e+00
      0.549    26.7597   1.167264     6.4003     3.5869      8.622  0.000e+00
      0.576    26.7611   1.167171     6.3996     3.5873      8.621  0.000e+00
      0.630    26.7607   1.167069     6.3990     3.5859      8.617  0.000e+00
      0.696    26.7587   1.167042     6.3991     3.5841      8.620  0.000e+00
      0.762    26.7562   1.166977     6.3991     3.5827      8.618  0.000e+00
      0.816    26.7544   1.167088     6.4000     3.5812      8.621  0.000e+00
      0.836    26.7535   1.167162     6.4006     3.5829      8.621  0.000e+00
      0.804    26.7545   1.167046     6.3997     3.5848      8.621  0.000e+00
      0.725    26.7549   1.167107     6.4000     3.5842      8.622  0.000e+00
      0.630    26.7553   1.167130     6.4001     3.5819      8.620  0.000e+00
      0.557    26.7556   1.167362     6.4015     3.5808      8.618  0.000e+00
      0.532    26.7582   1.167450     6.4016     3.5817      8.620  0.000e+00
      0.563    26.7620   1.167487     6.4013     3.5816      8.620  0.000e+00
      0.627    26.7652   1.167394     6.4003     3.5799      8.622  0.000e+00
      0.708    26.7665   1.167362     6.4000     3.5793      8.617  0.000e+00
      0.778    26.7669   1.167232     6.3992     3.5798      8.619  0.000e+00
      0.816    26.7653   1.167246     6.3994     3.5812      8.622  0.000e+00
      0.799    26.7636   1.167287     6.3999     3.5818      8.619  0.000e+00
      0.736    26.7630   1.167403     6.4007     3.5827      8.618  0.000e+00
      0.646    26.7642   1.167403     6.4005     3.5829      8.620  0.000e+00
      0.571    26.7656   1.167357     6.4001     3.5826      8.620  0.000e+00
      0.545    26.7664   1.166119     6.3927     3.5826      8.619  0.000e+00
      0.586    26.7667   1.167232     6.3992     3.5830      8.620  0.000e+00
      0.668    26.7667   1.163645     6.3780     3.5829      8.622  0.000e+00
      0.743    26.7670   1.167209     6.3990     3.5824      8.620  0.000e+00
      0.782    26.7669   1.165813     6.3908     3.5819      8.620  0.000e+00
      0.774    26.7674   1.166967     6.3975     3.5834      8.619  0.000e+00
      0.731    26.7680   1.167297     6.3994     3.5792      8.622  0.000e+00
      0.670    26.7684   1.167107     6.3982     3.5750      8.622  0.000e+00
      0.611    26.7690   1.167204     6.3987     3.5746      8.620  0.000e+00
      0.577    26.7684   1.167107     6.3982     3.5757      8.622  0.000e+00
      0.583    26.7679   1.166967     6.3975     3.5740      8.622  0.000e+00
      0.623    26.7674   1.166175     6.3928     3.5731      8.622  0.000e+00
      0.674    26.7675   1.166518     6.3949     3.5727      8.625  0.000e+00
      0.715    26.7698   1.159386     6.3524     3.5731      8.620  0.000e+00
      0.742    26.7737   1.167450     6.3995     3.5754      8.620  0.000e+00
      0.750    26.7768   1.167510     6.3995     3.5788      8.620  0.000e+00
      0.737    26.7786   1.167426     6.3987     3.5781      8.621  0.000e+00
      0.713    26.7790   1.167385     6.3984     3.5755      8.621  0.000e+00
      0.685    26.7779   1.167496     6.3992     3.5734      8.618  0.000e+00
      0.664    26.7783   1.167552     6.3995     3.5733      8.621  0.000e+00
      0.655    26.7798   1.167218     6.3973     3.5753      8.622  0.000e+00
      0.647    26.7800   1.167482     6.3989     3.5767      8.619  0.000e+00
      0.636    26.7801   1.167394     6.3983     3.5768      8.620  0.000e+00
      0.634    26.7801   1.167116     6.3967     3.5757      8.621  0.000e+00
      0.646    26.7768   1.167042     6.3967     3.5731      8.622  0.000e+00
      0.677    26.7723   1.166935     6.3967     3.5712      8.619  0.000e+00
      0.724    26.7683   1.166462     6.3944     3.5712      8.617  0.000e+00
      0.779    26.7607   1.166207     6.3939     3.5735      8.620  0.000e+00
      0.809    26.7515   1.165920     6.3935     3.5745      8.621  0.000e+00
      0.784    26.7418   1.166346     6.3973     3.5742      8.622  0.000e+00
      0.746    26.7380   1.166703     6.3999     3.5747      8.623  0.000e+00
      0.716    26.7414   1.166750     6.3998     3.5755      8.620  0.000e+00
      0.698    26.7457   1.166787     6.3994     3.5735      8.621  0.000e+00
      0.697    26.7492   1.166680     6.3983     3.5729      8.619  0.000e+00
      0.704    26.7505   1.166671     6.3981     3.5711      8.621  0.000e+00
      0.709    26.7505   1.166694     6.3982     3.5686      8.619  0.000e+00
      0.710    26.7508   1.166680     6.3981     3.5665      8.622  0.000e+00
      0.718    26.7512   1.166629     6.3977     3.5642      8.622  0.000e+00
      0.736    26.7506   1.166495     6.3970     3.5627      8.619  0.000e+00
      0.766    26.7494   1.166597     6.3978     3.5625      8.623  0.000e+00
      0.793    26.7489   1.166634     6.3981     3.5671      8.623  0.000e+00
      0.805    26.7499   1.166703     6.3983     3.5707      8.621  0.000e+00
      0.798    26.7511   1.166736     6.3984     3.5724      8.621  0.000e+00
      0.770    26.7525   1.166671     6.3978     3.5743      8.622  0.000e+00
      0.730    26.7528   1.166648     6.3976     3.5748      8.624  0.000e+00
      0.690    26.7524   1.166680     6.3979     3.5742      8.623  0.000e+00
      0.667    26.7522   1.166685     6.3979     3.5745      8.620  0.000e+00
      0.670    26.7522   1.166671     6.3978     3.5758      8.620  0.000e+00
      0.698    26.7519   1.166439     6.3965     3.5772      8.619  0.000e+00
      0.738    26.7499   1.166384     6.3964     3.5778      8.619  0.000e+00
      0.778    26.7464   1.166110     6.3953     3.5762      8.620  0.000e+00
      0.808    26.7417   1.166254     6.3968     3.5779      8.622  0.000e+00
      0.817    26.7390   1.166333     6.3976     3.5779      8.619  0.000e+00
      0.801    26.7386   1.166360     6.3978     3.5779      8.620  0.000e+00
      0.769    26.7393   1.166314     6.3975     3.5782      8.621  0.000e+00
      0.733    26.7398   1.166564     6.3989     3.5781      8.621  0.000e+00
      0.705    26.7416   1.166601     6.3989     3.5802      8.622  0.000e+00
      0.684    26.7444   1.166629     6.3986     3.5815      8.620  0.000e+00
      0.671    26.7464   1.166680     6.3987     3.5797      8.622  0.000e+00
      0.671    26.7488   1.166713     6.3985     3.5768      8.620  0.000e+00
      0.693    26.7506   1.166750     6.3985     3.5769      8.621  0.000e+00
      0.739    26.7519   1.166694     6.3980     3.5760      8.618  0.000e+00
      0.796    26.7527   1.166601     6.3973     3.5750      8.619  0.000e+00
      0.847    26.7521   1.166662     6.3978     3.5753      8.620  0.000e+00
      0.869    26.7518   1.166694     6.3980     3.5736      8.621  0.000e+00
      0.848    26.7523   1.166694     6.3980     3.5724      8.621  0.000e+00
      0.784    26.7529   1.166713     6.3980     3.5707      8.622  0.000e+00
      0.696    26.7531   1.166810     6.3985     3.5734      8.620  0.000e+00
      0.621    26.7545   1.166842     6.3985     3.5762      8.623  0.000e+00
      0.585    26.7563   1.166935     6.3988     3.5785      8.619  0.000e+00
      0.610    26.7585   1.167074     6.3994     3.5795      8.623  0.000e+00
      0.683    26.7618   1.167324     6.4004     3.5818      8.620  0.000e+00
      0.776    26.7670   1.167352     6.3999     3.5840      8.624  0.000e+00
      0.851    26.7725   1.167037     6.3972     3.5864      8.621  0.000e+00
      0.887    26.7728   1.166958     6.3967     3.5863      8.622  0.000e+00
      0.880    26.7700   1.167023     6.3975     3.5836      8.621  0.000e+00
      0.835    26.7684   1.167394     6.3999     3.5811      8.620  0.000e+00
      0.774    26.7715   1.167287     6.3989     3.5788      8.621  0.000e+00
      0.716    26.7746   1.167255     6.3982     3.5774      8.618  0.000e+00
      0.670    26.7760   1.167357     6.3987     3.5772      8.622  0.000e+00
      0.640    26.7775   1.167287     6.3981     3.5763      8.620  0.000e+00
      0.632    26.7783   1.167255     6.3977     3.5782      8.620  0.000e+00
      0.649    26.7779   1.167264     6.3979     3.5778      8.619  0.000e+00
      0.682    26.7776   1.167361     6.3985     3.5765      8.621  0.000e+00
      0.726    26.7787   1.167612     6.3998     3.5753      8.620  0.000e+00
      0.774    26.7827   1.167681     6.3997     3.5759      8.622  0.000e+00
      0.823    26.7872   1.167691     6.3991     3.5765      8.618  0.000e+00
      0.864    26.7910   1.167552     6.3978     3.5775      8.623  0.000e+00
      0.880    26.7913   1.167598     6.3980     3.5743      8.619  0.000e+00
      0.858    26.7916   1.167575     6.3978     3.5685      8.620  0.000e+00
      0.793    26.7914   1.167575     6.3979     3.5631      8.622  0.000e+00
      0.710    26.7912   1.167575     6.3979     3.5628      8.618  0.000e+00
      0.638    26.7909   1.167542     6.3977     3.5657      8.623  0.000e+00
      0.595    26.7908   1.167496     6.3975     3.5704      8.622  0.000e+00
      0.599    26.7901   1.167533     6.3978     3.5757      8.624  0.000e+00
      0.641    26.7898   1.167473     6.3975     3.5754      8.621  0.000e+00
      0.704    26.7893   1.167278     6.3964     3.5766      8.618  0.000e+00
      0.765    26.7864   1.167139     6.3960     3.5782      8.620  0.000e+00
      0.806    26.7826   1.167394     6.3980     3.5745      8.622  0.000e+00
      0.825    26.7820   1.167473     6.3985     3.5694      8.619  0.000e+00
      0.827    26.7836   1.167519     6.3986     3.5662      8.618  0.000e+00
      0.814    26.7860   1.167519     6.3983     3.5677      8.621  0.000e+00
      0.783    26.7882   1.167403     6.3973     3.5705      8.620  0.000e+00
      0.742    26.7898   1.166865     6.3939     3.5729      8.623  0.000e+00
      0.702    26.7909   1.167519     6.3976     3.5747      8.621  0.000e+00
      0.665    26.7912   1.167482     6.3973     3.5765      8.620  0.000e+00
      0.642    26.7907   1.167496     6.3975     3.5773      8.622  0.000e+00
      0.649    26.7899   1.167584     6.3981     3.5761      8.625  0.000e+00
      0.684    26.7910   1.167565     6.3979     3.5773      8.623  0.000e+00
      0.736    26.7922   1.167426     6.3969     3.5765      8.621  0.000e+00
      0.780    26.7929   1.167589     6.3977     3.5755      8.620  0.000e+00
      0.803    26.7938   1.167468     6.3969     3.5765      8.620  0.000e+00
      0.797    26.7929   1.167635     6.3980     3.5776      8.620  0.000e+00
      0.775    26.7926   1.167681     6.3983     3.5755      8.619  0.000e+00
      0.751    26.7945   1.167667     6.3980     3.5746      8.623  0.000e+00
      0.735    26.7961   1.167649     6.3977     3.5717      8.621  0.000e+00
      0.734    26.7967   1.167635     6.3975     3.5708      8.620  0.000e+00
      0.742    26.7968   1.167042     6.3940     3.5701      8.619  0.000e+00
      0.749    26.7961   1.167589     6.3973     3.5683      8.622  0.000e+00
      0.746    26.7953   1.167575     6.3973     3.5677      8.619  0.000e+00
      0.732    26.7952   1.167561     6.3973     3.5695      8.621  0.000e+00
      0.715    26.7945   1.167552     6.3973     3.5719      8.622  0.000e+00
      0.706    26.7939   1.167403     6.3965     3.5731      8.622  0.000e+00
      0.715    26.7922   1.167264     6.3959     3.5744      8.621  0.000e+00
      0.750    26.7883   1.167116     6.3956     3.5740      8.621  0.000e+00
      0.793    26.7835   1.166921     6.3951     3.5712      8.622  0.000e+00
      0.812    26.7771   1.166884     6.3957     3.5702      8.621  0.000e+00
      0.800    26.7715   1.166866     6.3964     3.5718      8.620  0.000e+00
      0.765    26.7678   1.166981     6.3975     3.5734      8.618  0.000e+00
      0.729    26.7668   1.166954     6.3975     3.5740      8.624  0.000e+00
      0.714    26.7669   1.166944     6.3975     3.5779      8.621  0.000e+00
      0.726    26.7668   1.166949     6.3975     3.5786      8.620  0.000e+00
      0.761    26.7668   1.166954     6.3975     3.5779      8.621  0.000e+00
      0.800    26.7669   1.166958     6.3975     3.5786      8.622  0.000e+00
      0.834    26.7670   1.166968     6.3976     3.5808      8.618  0.000e+00
      0.855    26.7670   1.166958     6.3975     3.5789      8.624  0.000e+00
      0.839    26.7673   1.166968     6.3975     3.5786      8.622  0.000e+00
      0.789    26.7677   1.166981     6.3976     3.5782      8.620  0.000e+00
      0.740    26.7678   1.167000     6.3977     3.5776      8.620  0.000e+00
      0.722    26.7686   1.167023     6.3977     3.5768      8.622  0.000e+00
      0.735    26.7689   1.167037     6.3977     3.5766      8.622  0.000e+00
      0.757    26.7695   1.167023     6.3976     3.5794      8.623  0.000e+00
      0.779    26.7702   1.167000     6.3973     3.5811      8.622  0.000e+00
      0.799    26.7699   1.166967     6.3972     3.5818      8.622  0.000e+00
      0.822    26.7694   1.166884     6.3968     3.5805      8.624  0.000e+00
      0.850    26.7682   1.166759     6.3962     3.5791      8.621  0.000e+00
      0.879    26.7656   1.166787     6.3967     3.5788      8.622  0.000e+00
      0.890    26.7637   1.166759     6.3968     3.5791      8.621  0.000e+00
      0.870    26.7622   1.166745     6.3969     3.5779      8.624  0.000e+00
      0.826    26.7614   1.166736     6.3970     3.5786      8.622  0.000e+00
      0.780    26.7605   1.166745     6.3971     3.5785      8.621  0.000e+00
      0.750    26.7600   1.166773     6.3974     3.5785      8.621  0.000e+00
      0.741    26.7602   1.166787     6.3974     3.5782      8.623  0.000e+00
      0.753    26.7607   1.166796     6.3974     3.5775      8.621  0.000e+00
      0.784    26.7609   1.166773     6.3973     3.5760      8.620  0.000e+00
      0.856    26.7611   1.166745     6.3971     3.5779      8.622  0.000e+00
      0.995    26.7609   1.166796     6.3974     3.5768      8.623  0.000e+00
      1.161    26.7610   1.166703     6.3968     3.5750      8.620  0.000e+00
      1.311    26.7604   1.166291     6.3944     3.5735      8.621  0.000e+00
      1.437    26.7555   1.164734     6.3859     3.5737      8.624  0.000e+00
      1.554    26.7421   1.163983     6.3833     3.5757      8.623  0.000e+00
      1.672    26.7170   1.163613     6.3845     3.5773      8.625  0.000e+00
      1.789    26.6949   1.162793     6.3826     3.5783      8.624  0.000e+00
      1.880    26.6745   1.162534     6.3838     3.5803      8.625  0.000e+00
      1.959    26.6566   1.162335     6.3851     3.5809      8.624  0.000e+00
      2.054    26.6440   1.161363     6.3810     3.5815      8.627  0.000e+00
      2.171    26.6298   1.160076     6.3753     3.5840      8.628  0.000e+00
      2.291    26.6105   1.158244     6.3670     3.5822      8.626  0.000e+00
      2.419    26.5802   1.158651     6.3735     3.5748      8.626  0.000e+00
      2.532    26.5574   1.158290     6.3745     3.5698      8.629  0.000e+00
      2.633    26.5417   1.158586     6.3784     3.5634      8.627  0.000e+00
      2.733    26.5336   1.158485     6.3788     3.5592      8.625  0.000e+00
      2.842    26.5301   1.158609     6.3801     3.5546      8.625  0.000e+00
      2.959    26.5281   1.157943     6.3764     3.5493      8.625  0.000e+00
      3.092    26.5234   1.157569     6.3748     3.5430      8.627  0.000e+00
      3.227    26.5140   1.157060     6.3730     3.5412      8.625  0.000e+00
      3.336    26.5000   1.156963     6.3743     3.5396      8.624  0.000e+00
      3.408    26.4891   1.156921     6.3756     3.5345      8.622  0.000e+00
      3.475    26.4811   1.156806     6.3760     3.5283      8.620  0.000e+00
      3.541    26.4752   1.156838     6.3769     3.5242      8.622  0.000e+00
      3.582    26.4700   1.156903     6.3780     3.5209      8.621  0.000e+00
      3.630    26.4682   1.156815     6.3777     3.5176      8.622  0.000e+00
      3.708    26.4656   1.156366     6.3754     3.5137      8.619  0.000e+00
      3.826    26.4503   1.156440     6.3779     3.5103      8.617  0.000e+00
      3.990    26.4281   1.156889     6.3836     3.5055      8.616  0.000e+00
      4.167    26.4048   1.162415     6.4197     3.4988      8.613  0.000e+00
      4.316    26.3700   1.170730     6.4740     3.4862      8.608  0.000e+00
      4.431    26.3197   1.174741     6.5049     3.4723      8.604  0.000e+00
      4.507    26.2660   1.175865     6.5191     3.4530      8.600  0.000e+00
      4.540    26.2257   1.176107     6.5261     3.4250      8.596  0.000e+00
      4.575    26.2007   1.175401     6.5254     3.3884      8.591  0.000e+00
      4.660    26.1870   1.183099     6.5734     3.3488      8.585  0.000e+00
      4.782    26.1683   1.203010     6.6955     3.3136      8.576  0.000e+00
      4.924    26.1195   1.215516     6.7777     3.2851      8.566  0.000e+00
      5.076    26.0525   1.241414     6.9437     3.2572      8.553  0.000e+00
      5.217    25.9763   1.269357     7.1243     3.2199      8.533  0.000e+00
      5.334    25.8828   1.290482     7.2670     3.1691      8.518  0.000e+00
      5.452    25.7783   1.304067     7.3663     3.1036      8.498  0.000e+00
      5.576    25.6817   1.323072     7.4979     3.0233      8.478  0.000e+00
      5.707    25.5985   1.337926     7.6026     2.9303      8.458  0.000e+00
      5.838    25.5267   1.374560     7.8401     2.8283      8.437  0.000e+00
      5.952    25.4529   1.409366     8.0679     2.7215      8.414  0.000e+00
      6.060    25.3757   1.467390     8.4422     2.6182      8.392  0.000e+00
      6.176    25.2940   1.574380     9.1274     2.5186      8.361  0.000e+00
      6.294    25.1823   1.659840     9.6896     2.4240      8.328  0.000e+00
      6.407    25.0339   1.665427     9.7564     2.3340      8.296  0.000e+00
      6.552    24.9122   1.667621     9.7963     2.2469      8.274  0.000e+00
      6.715    24.8337   1.669261     9.8236     2.1503      8.252  0.000e+00
      6.864    24.7866   1.671904     9.8506     2.0515      8.238  0.000e+00
      6.996    24.7589   1.672830     9.8625     1.9614      8.221  0.000e+00
      7.114    24.7426   1.674255     9.8751     1.8872      8.210  0.000e+00
      7.223    24.7329   1.675562     9.8856     1.8283      8.194  0.000e+00
      7.343    24.7270   1.677055     9.8964     1.7831      8.187  0.000e+00
      7.474    24.7234   1.679413     9.9123     1.7466      8.171  0.000e+00
      7.603    24.7207   1.680938     9.9226     1.7200      8.156  0.000e+00
      7.711    24.7181   1.683493     9.9396     1.6973      8.151  0.000e+00
      7.809    24.7153   1.686824     9.9615     1.6797      8.146  0.000e+00
      7.909    24.7115   1.688314     9.9719     1.6650      8.131  0.000e+00
      8.015    24.7080   1.693470    10.0057     1.6545      8.123  0.000e+00
      8.158    24.7032   1.696802    10.0282     1.6439      8.114  0.000e+00
      8.337    24.6975   1.700730    10.0546     1.6350      8.107  0.000e+00
      8.506    24.6902   1.707843    10.1019     1.6261      8.096  0.000e+00
      8.628    24.6809   1.717362    10.1651     1.6156      8.086  0.000e+00
      8.706    24.6671   1.723610    10.2084     1.6072      8.080  0.000e+00
      8.777    24.6519   1.735705    10.2896     1.5938      8.071  0.000e+00
      8.865    24.6341   1.770961    10.5211     1.5851      8.060  0.000e+00
      8.952    24.5960   1.836000    10.9509     1.5724      8.050  0.000e+00
      9.038    24.5248   1.881287    11.2627     1.5583      8.034  0.000e+00
      9.154    24.4204   1.939667    11.6704     1.5375      8.018  0.000e+00
      9.312    24.2978   2.051240    12.4371     1.5109      7.994  0.000e+00
      9.480    24.1382   2.139691    13.0691     1.4703      7.971  0.000e+00
      9.640    23.9420   2.197154    13.5112     1.4147      7.949  0.000e+00
      9.783    23.7560   2.230834    13.7944     1.3510      7.928  0.000e+00
      9.912    23.6217   2.263843    14.0595     1.2740      7.913  0.000e+00
     10.040    23.5360   2.284041    14.2238     1.1887      7.899  0.000e+00
     10.158    23.4782   2.298094    14.3379     1.1040      7.888  0.000e+00
     10.258    23.4360   2.304626    14.3960     1.0296      7.879  0.000e+00
     10.335    23.4066   2.310364    14.4447     0.9670      7.871  0.000e+00
     10.401    23.3875   2.312161    14.4632     0.9156      7.863  0.000e+00
     10.462    23.3755   2.315419    14.4893     0.8750      7.857  0.000e+00
     10.547    23.3673   2.317217    14.5043     0.8434      7.855  0.000e+00
     10.671    23.3609   2.324135    14.5537     0.8183      7.849  0.000e+00
     10.818    23.3582   2.333930    14.6216     0.7994      7.838  0.000e+00
     10.970    23.3601   2.335389    14.6310     0.7845      7.832  0.000e+00
     11.137    23.3637   2.344252    14.6905     0.7743      7.829  0.000e+00
     11.301    23.3681   2.369619    14.8629     0.7676      7.820  0.000e+00
     11.437    23.3714   2.407517    15.1220     0.7640      7.809  0.000e+00
     11.532    23.3627   2.418656    15.2015     0.7619      7.804  0.000e+00
     11.598    23.3364   2.425754    15.2594     0.7609      7.802  0.000e+00
     11.656    23.2956   2.425498    15.2715     0.7581      7.794  0.000e+00
     11.723    23.2613   2.426314    15.2889     0.7541      7.791  0.000e+00
     11.803    23.2356   2.425615    15.2929     0.7452      7.785  0.000e+00
     11.878    23.2067   2.426180    15.3067     0.7364      7.780  0.000e+00
     11.953    23.1763   2.426076    15.3164     0.7279      7.778  0.000e+00
     12.050    23.1457   2.427252    15.3351     0.7193      7.773  0.000e+00
     12.173    23.1107   2.436301    15.4097     0.7118      7.769  0.000e+00
     12.317    23.0673   2.457515    15.5718     0.7037      7.764  0.000e+00
     12.483    23.0131   2.480032    15.7473     0.6967      7.759  0.000e+00
     12.649    22.9697   2.487042    15.8115     0.6893      7.752  0.000e+00
     12.801    22.9429   2.497904    15.8967     0.6820      7.747  0.000e+00
     12.925    22.9275   2.509248    15.9813     0.6723      7.740  0.000e+00
     13.014    22.9189   2.510657    15.9942     0.6637      7.733  0.000e+00
     13.090    22.9149   2.511441    16.0011     0.6555      7.732  0.000e+00
     13.171    22.9144   2.513026    16.0123     0.6469      7.728  0.000e+00
     13.262    22.9159   2.516169    16.0337     0.6417      7.722  0.000e+00
     13.361    22.9210   2.521550    16.0694     0.6368      7.720  0.000e+00
     13.480    22.9307   2.522777    16.0745     0.6322      7.715  0.000e+00
     13.618    22.9408   2.523350    16.0748     0.6312      7.712  0.000e+00
     13.763    22.9477   2.523433    16.0728     0.6279      7.710  0.000e+00
     13.902    22.9509   2.524714    16.0806     0.6265      7.704  0.000e+00
     14.028    22.9531   2.526828    16.0945     0.6243      7.702  0.000e+00
     14.142    22.9573   2.526598    16.0914     0.6220      7.701  0.000e+00
     14.265    22.9611   2.527029    16.0930     0.6217      7.699  0.000e+00
     14.400    22.9636   2.529280    16.1078     0.6210      7.697  0.000e+00
     14.535    22.9631   2.529741    16.1111     0.6204      7.692  0.000e+00
     14.655    22.9599   2.530225    16.1156     0.6191      7.689  0.000e+00
     14.767    22.9580   2.529759    16.1131     0.6172      7.688  0.000e+00
     14.886    22.9554   2.530025    16.1158     0.6178      7.683  0.000e+00
     15.003    22.9535   2.529333    16.1117     0.6168      7.680  0.000e+00
     15.121    22.9460   2.530757    16.1243     0.6146      7.676  0.000e+00
     15.227    22.9339   2.531159    16.1315     0.6150      7.675  0.000e+00
     15.340    22.9253   2.532696    16.1454     0.6125      7.669  0.000e+00
     15.474    22.9217   2.535623    16.1671     0.6129      7.669  0.000e+00
     15.625    22.9239   2.538048    16.1832     0.6111      7.667  0.000e+00
     15.778    22.9298   2.538746    16.1859     0.6095      7.663  0.000e+00
     15.916    22.9356   2.538723    16.1836     0.6094      7.656  0.000e+00
     16.036    22.9393   2.539545    16.1880     0.6082      7.657  0.000e+00
     16.155    22.9414   2.541587    16.2015     0.6063      7.656  0.000e+00
     16.258    22.9420   2.544014    16.2182     0.6068      7.651  0.000e+00
     16.317    22.9415   2.545412    16.2281     0.6040      7.649  0.000e+00
     16.338    22.9404   2.544375    16.2213     0.6028      7.646  0.000e+00
     16.370    22.9407   2.543594    16.2157     0.6028      7.646  0.000e+00
     16.456    22.9429   2.543819    16.2164     0.6026      7.639  0.000e+00
     16.597    22.9451   2.550394    16.2615     0.6004      7.637  0.000e+00
     16.780    22.9429   2.566776    16.3768     0.6000      7.636  0.000e+00
     16.982    22.9353   2.591839    16.5550     0.5998      7.633  0.000e+00
     17.160    22.9242   2.617104    16.7361     0.5982      7.630  0.000e+00
     17.282    22.9138   2.648637    16.9614     0.5978      7.626  0.000e+00
     17.343    22.9086   2.651618    16.9843     0.5938      7.622  0.000e+00
     17.371    22.9080   2.646186    16.9463     0.5902      7.620  0.000e+00
     17.409    22.9092   2.642524    16.9201     0.5854      7.617  0.000e+00
     17.486    22.9109   2.643280    16.9248     0.5823      7.615  0.000e+00
     17.589    22.9130   2.673052    17.1332     0.5786      7.614  0.000e+00
     17.710    22.9150   2.679064    17.1747     0.5737      7.607  0.000e+00
     17.852    22.9173   2.690367    17.2533     0.5715      7.603  0.000e+00
     18.006    22.9231   2.704198    17.3483     0.5683      7.596  0.000e+00
     18.157    22.9349   2.717207    17.4353     0.5675      7.596  0.000e+00
     18.306    22.9515   2.728228    17.5063     0.5665      7.595  0.000e+00
     18.443    22.9721   2.729679    17.5084     0.5654      7.590  0.000e+00
     18.548    22.9898   2.729612    17.5009     0.5666      7.583  0.000e+00
     18.616    23.0014   2.729861    17.4981     0.5667      7.587  0.000e+00
     18.653    23.0083   2.729770    17.4947     0.5681      7.584  0.000e+00
     18.682    23.0127   2.729897    17.4939     0.5689      7.582  0.000e+00
     18.729    23.0156   2.730116    17.4942     0.5718      7.581  0.000e+00
     18.820    23.0178   2.730590    17.4967     0.5724      7.580  0.000e+00
     18.943    23.0193   2.731301    17.5011     0.5737      7.575  0.000e+00
     19.091    23.0207   2.732151    17.5065     0.5738      7.577  0.000e+00
     19.257    23.0224   2.732625    17.5091     0.5741      7.575  0.000e+00
     19.423    23.0244   2.732370    17.5065     0.5757      7.573  0.000e+00
     19.580    23.0257   2.734941    17.5240     0.5753      7.576  0.000e+00
     19.710    23.0274   2.740171    17.5601     0.5766      7.575  0.000e+00
     19.785    23.0310   2.741339    17.5669     0.5765      7.569  0.000e+00
     19.826    23.0353   2.741320    17.5651     0.5774      7.568  0.000e+00
     19.871    23.0383   2.740463    17.5578     0.5778      7.566  0.000e+00
     19.945    23.0408   2.742330    17.5699     0.5779      7.563  0.000e+00
     20.069    23.0423   2.745653    17.5927     0.5796      7.562  0.000e+00
     20.240    23.0439   2.749021    17.6157     0.5793      7.565  0.000e+00
     20.425    23.0457   2.753773    17.6484     0.5800      7.560  0.000e+00
     20.599    23.0480   2.754876    17.6553     0.5812      7.560  0.000e+00
     20.735    23.0498   2.759302    17.6857     0.5812      7.557  0.000e+00
     20.816    23.0515   2.766599    17.7363     0.5808      7.554  0.000e+00
     20.860    23.0536   2.765342    17.7266     0.5811      7.555  0.000e+00
     20.930    23.0551   2.764054    17.7170     0.5810      7.556  0.000e+00
     21.060    23.0567   2.764903    17.7223     0.5806      7.552  0.000e+00
     21.209    23.0574   2.767558    17.7406     0.5810      7.548  0.000e+00
     21.366    23.0577   2.767888    17.7428     0.5803      7.551  0.000e+00
     21.506    23.0576   2.769274    17.7526     0.5793      7.547  0.000e+00
     21.619    23.0579   2.770159    17.7587     0.5796      7.543  0.000e+00
     21.716    23.0580   2.770343    17.7599     0.5797      7.542  0.000e+00
     21.813    23.0582   2.771289    17.7665     0.5776      7.543  0.000e+00
     21.910    23.0585   2.773006    17.7784     0.5775      7.539  0.000e+00
     22.016    23.0586   2.773837    17.7842     0.5767      7.540  0.000e+00
     22.127    23.0586   2.773837    17.7842     0.5768      7.538  0.000e+00
     22.229    23.0583   2.773874    17.7845     0.5759      7.539  0.000e+00
     22.291    23.0582   2.773874    17.7846     0.5755      7.534  0.000e+00
     22.317    23.0581   2.773855    17.7845     0.5744      7.535  0.000e+00
     22.337    23.0579   2.773855    17.7846     0.5732      7.534  0.000e+00
     22.366    23.0576   2.773892    17.7849     0.5736      7.536  0.000e+00
     22.393    23.0579   2.773507    17.7821     0.5735      7.532  0.000e+00
     22.415    23.0577   2.772634    17.7760     0.5731      7.532  0.000e+00
     22.438    23.0576   2.754864    17.6510     0.5726      7.530  0.000e+00
     22.463    23.0575   2.769182    17.7518     0.5727      7.528  0.000e+00
     22.485    23.0577   2.773299    17.7807     0.5725      7.528  0.000e+00
     22.502    23.0593   2.772731    17.7760     0.5725      7.523  0.000e+00
     22.507    23.0608   2.768462    17.7454     0.5714      7.514  0.000e+00
     22.508    23.0616   2.759577    17.6826     0.5713      7.504  0.000e+00
     22.509    23.0622   2.771784    17.7682     0.5708      7.494  0.000e+00
     22.513    23.0624   2.771766    17.7680     0.5709      7.489  0.000e+00
     22.510    23.0620   2.771235    17.7644     0.5710      7.486  0.000e+00
     22.497    23.0620   2.767632    17.7391     0.5711      7.486  0.000e+00
     22.475    23.0608   2.764695    17.7189     0.5701      7.493  0.000e+00
     22.449    23.0581   2.761492    17.6975     0.5705      7.495  0.000e+00
     22.423    23.0537   2.755626    17.6579     0.5706      7.498  0.000e+00
     22.383    23.0525   2.762102    17.7040     0.5708      7.499  0.000e+00
     22.316    23.0539   2.773342    17.7826     0.5703      7.497  0.000e+00
     22.177    23.0572   2.773599    17.7831     0.5698      7.500  0.000e+00
     22.006    23.0616   2.772285    17.7721     0.5691      7.503  0.000e+00
     21.828    23.0661   2.771528    17.7650     0.5689      7.503  0.000e+00
     21.649    23.0699   2.772358    17.7693     0.5693      7.502  0.000e+00
     21.479    23.0708   2.772914    17.7729     0.5695      7.504  0.000e+00
     21.312    23.0697   2.773134    17.7749     0.5693      7.503  0.000e+00
     21.146    23.0675   2.772768    17.7733     0.5692      7.504  0.000e+00
     20.977    23.0663   2.772541    17.7722     0.5702      7.503  0.000e+00
     20.837    23.0654   2.772065    17.7692     0.5704      7.499  0.000e+00
     20.699    23.0643   2.772138    17.7702     0.5703      7.501  0.000e+00
     20.548    23.0634   2.771252    17.7643     0.5699      7.499  0.000e+00
     20.399    23.0628   2.769383    17.7515     0.5699      7.502  0.000e+00
     20.285    23.0623   2.769957    17.7557     0.5699      7.504  0.000e+00
     20.178    23.0616   2.767313    17.7374     0.5709      7.500  0.000e+00
     20.047    23.0611   2.767851    17.7414     0.5709      7.502  0.000e+00
     19.891    23.0606   2.765696    17.7265     0.5712      7.499  0.000e+00
     19.726    23.0606   2.763370    17.7102     0.5715      7.499  0.000e+00
     19.532    23.0603   2.762559    17.7046     0.5716      7.499  0.000e+00
     19.314    23.0601   2.758862    17.6787     0.5726      7.500  0.000e+00
     19.123    23.0599   2.751956    17.6302     0.5726      7.498  0.000e+00
     18.938    23.0588   2.749501    17.6134     0.5732      7.498  0.000e+00
     18.741    23.0572   2.743298    17.5705     0.5735      7.495  0.000e+00
     18.550    23.0546   2.740426    17.5514     0.5739      7.493  0.000e+00
     18.383    23.0506   2.737415    17.5318     0.5747      7.496  0.000e+00
     18.230    23.0469   2.737561    17.5343     0.5750      7.494  0.000e+00
     18.098    23.0435   2.737135    17.5327     0.5757      7.493  0.000e+00
     18.010    23.0417   2.734776    17.5168     0.5766      7.492  0.000e+00
     17.912    23.0389   2.732133    17.4994     0.5765      7.491  0.000e+00
     17.766    23.0343   2.731847    17.4992     0.5774      7.494  0.000e+00
     17.582    23.0306   2.730353    17.4902     0.5764      7.494  0.000e+00
     17.398    23.0280   2.728409    17.4776     0.5770      7.492  0.000e+00
     17.214    23.0249   2.725609    17.4591     0.5760      7.493  0.000e+00
     17.040    23.0228   2.713811    17.3771     0.5754      7.493  0.000e+00
     16.910    23.0152   2.706861    17.3312     0.5747      7.496  0.000e+00
     16.813    23.0045   2.709817    17.3562     0.5750      7.497  0.000e+00
     16.721    22.9960   2.691508    17.2309     0.5741      7.493  0.000e+00
     16.613    22.9853   2.692638    17.2430     0.5732      7.495  0.000e+00
     16.504    22.9754   2.676572    17.1340     0.5722      7.499  0.000e+00
     16.389    22.9657   2.661763    17.0338     0.5713      7.499  0.000e+00
     16.256    22.9563   2.647008    16.9338     0.5688      7.501  0.000e+00
     16.096    22.9474   2.647423    16.9402     0.5679      7.504  0.000e+00
     15.932    22.9435   2.620340    16.7517     0.5672      7.501  0.000e+00
     15.805    22.9397   2.618970    16.7436     0.5658      7.502  0.000e+00
     15.688    22.9364   2.621591    16.7632     0.5651      7.502  0.000e+00
     15.570    22.9339   2.610467    16.6862     0.5651      7.502  0.000e+00
     15.469    22.9324   2.606428    16.6585     0.5645      7.500  0.000e+00
     15.388    22.9319   2.595535    16.5824     0.5647      7.502  0.000e+00
     15.305    22.9315   2.580825    16.4796     0.5661      7.498  0.000e+00
     15.205    22.9311   2.580165    16.4751     0.5656      7.497  0.000e+00
     15.108    22.9314   2.573080    16.4255     0.5666      7.499  0.000e+00
     15.027    22.9314   2.569074    16.3974     0.5680      7.496  0.000e+00
     14.927    22.9319   2.564328    16.3641     0.5705      7.499  0.000e+00
     14.784    22.9321   2.559965    16.3335     0.5701      7.496  0.000e+00
     14.624    22.9322   2.550844    16.2697     0.5720      7.493  0.000e+00
     14.487    22.9305   2.558405    16.3232     0.5741      7.494  0.000e+00
     14.362    22.9290   2.557835    16.3198     0.5755      7.492  0.000e+00
     14.233    22.9300   2.554733    16.2978     0.5776      7.491  0.000e+00
     14.098    22.9309   2.546578    16.2405     0.5783      7.495  0.000e+00
     13.980    22.9296   2.541350    16.2045     0.5796      7.491  0.000e+00
     13.872    22.9267   2.537474    16.1785     0.5804      7.491  0.000e+00
     13.763    22.9235   2.537723    16.1814     0.5817      7.489  0.000e+00
     13.658    22.9216   2.539113    16.1918     0.5831      7.488  0.000e+00
     13.583    22.9216   2.537137    16.1780     0.5847      7.490  0.000e+00
     13.515    22.9219   2.531951    16.1417     0.5859      7.487  0.000e+00
     13.418    22.9219   2.530775    16.1335     0.5857      7.485  0.000e+00
     13.273    22.9218   2.530757    16.1334     0.5871      7.484  0.000e+00
     13.107    22.9229   2.529475    16.1241     0.5879      7.486  0.000e+00
     12.916    22.9250   2.528370    16.1156     0.5894      7.488  0.000e+00
     12.711    22.9274   2.525357    16.0938     0.5915      7.484  0.000e+00
     12.528    22.9296   2.521662    16.0672     0.5908      7.485  0.000e+00
     12.413    22.9301   2.514087    16.0142     0.5928      7.483  0.000e+00
     12.360    22.9279   2.515862    16.0274     0.5941      7.484  0.000e+00
     12.325    22.9247   2.509708    15.9856     0.5934      7.483  0.000e+00
     12.270    22.9204   2.509513    15.9858     0.5951      7.482  0.000e+00
     12.184    22.9159   2.508913    15.9832     0.5947      7.481  0.000e+00
     12.050    22.9127   2.508188    15.9794     0.5956      7.484  0.000e+00
     11.866    22.9107   2.506415    15.9678     0.5976      7.485  0.000e+00
     11.659    22.9106   2.505903    15.9642     0.5960      7.486  0.000e+00
     11.468    22.9118   2.489491    15.8494     0.5956      7.485  0.000e+00
     11.309    22.9194   2.472972    15.7316     0.5969      7.487  0.000e+00
     11.181    22.9376   2.470892    15.7107     0.5977      7.488  0.000e+00
     11.077    22.9565   2.462629    15.6465     0.5992      7.488  0.000e+00
     11.013    22.9765   2.457463    15.6036     0.5985      7.489  0.000e+00
     10.951    22.9969   2.447773    15.5291     0.6014      7.485  0.000e+00
     10.850    23.0183   2.443184    15.4898     0.6043      7.490  0.000e+00
     10.707    23.0430   2.439217    15.4537     0.6076      7.493  0.000e+00
     10.558    23.0646   2.429261    15.3772     0.6114      7.495  0.000e+00
     10.409    23.0936   2.419722    15.3012     0.6159      7.494  0.000e+00
     10.251    23.1249   2.412333    15.2394     0.6204      7.496  0.000e+00
     10.085    23.1509   2.398978    15.1382     0.6247      7.498  0.000e+00
      9.951    23.1788   2.378603    14.9883     0.6293      7.497  0.000e+00
      9.841    23.2074   2.374558    14.9508     0.6357      7.496  0.000e+00
      9.716    23.2328   2.368361    14.8997     0.6430      7.495  0.000e+00
      9.586    23.2516   2.355587    14.8056     0.6483      7.498  0.000e+00
      9.492    23.2657   2.345334    14.7305     0.6552      7.496  0.000e+00
      9.412    23.2787   2.339101    14.6834     0.6604      7.498  0.000e+00
      9.306    23.2900   2.332007    14.6310     0.6677      7.500  0.000e+00
      9.174    23.3004   2.324135    14.5737     0.6727      7.502  0.000e+00
      9.042    23.3095   2.303341    14.4283     0.6745      7.504  0.000e+00
      8.913    23.3201   2.302186    14.4170     0.6781      7.512  0.000e+00
      8.777    23.3301   2.289944    14.3300     0.6809      7.518  0.000e+00
      8.633    23.3394   2.262800    14.1416     0.6832      7.523  0.000e+00
      8.504    23.3542   2.238416    13.9706     0.6848      7.529  0.000e+00
      8.393    23.3771   2.226152    13.8799     0.6861      7.538  0.000e+00
      8.274    23.4025   2.165977    13.4631     0.6894      7.550  0.000e+00
      8.139    23.4500   2.076191    12.8418     0.6925      7.560  0.000e+00
      8.012    23.5439   2.014736    12.4020     0.6981      7.569  0.000e+00
      7.904    23.6627   1.985441    12.1733     0.7059      7.570  0.000e+00
      7.795    23.7644   1.987512    12.1596     0.7237      7.579  0.000e+00
      7.668    23.8327   1.995547    12.1947     0.7547      7.587  0.000e+00
      7.526    23.8766   1.894296    11.5112     0.7963      7.588  0.000e+00
      7.389    23.9580   1.813745    10.9600     0.8427      7.590  0.000e+00
      7.244    24.0874   1.818690    10.9610     0.8849      7.595  0.000e+00
      7.090    24.1934   1.793611    10.7715     0.9240      7.595  0.000e+00
      6.951    24.2666   1.752320    10.4853     0.9729      7.598  0.000e+00
      6.838    24.3406   1.754805    10.4844     1.0308      7.598  0.000e+00
      6.749    24.3994   1.745862    10.4129     1.0898      7.600  0.000e+00
      6.661    24.4402   1.725454    10.2715     1.1450      7.602  0.000e+00
      6.561    24.4827   1.717487    10.2104     1.1993      7.602  0.000e+00
      6.450    24.5189   1.709926    10.1536     1.2460      7.603  0.000e+00
      6.343    24.5492   1.702887    10.1015     1.2884      7.605  0.000e+00
      6.229    24.5726   1.700389    10.0802     1.3261      7.608  0.000e+00
      6.077    24.5904   1.699081    10.0679     1.3588      7.616  0.000e+00
      5.903    24.6020   1.683370     9.9643     1.3885      7.632  0.000e+00
      5.745    24.6195   1.669637     9.8723     1.4117      7.651  0.000e+00
      5.612    24.6402   1.669997     9.8701     1.4335      7.666  0.000e+00
      5.468    24.6568   1.640733     9.6790     1.4529      7.684  0.000e+00
      5.315    24.6797   1.538611     9.0229     1.4718      7.697  0.000e+00
      5.189    24.7490   1.498320     8.7538     1.4892      7.711  0.000e+00
      5.098    24.8463   1.509110     8.8034     1.5086      7.719  0.000e+00
      4.993    24.9231   1.478329     8.5946     1.5349      7.733  0.000e+00
      4.844    24.9783   1.472550     8.5480     1.5774      7.749  0.000e+00
      4.705    25.0242   1.416916     8.1907     1.6309      7.766  0.000e+00
      4.574    25.0852   1.426055     8.2369     1.6835      7.787  0.000e+00
      4.406    25.1378   1.370329     7.8802     1.7343      7.807  0.000e+00
      4.226    25.2015   1.325699     7.5926     1.7883      7.830  0.000e+00
      4.064    25.2941   1.266695     7.2136     1.8455      7.852  0.000e+00
      3.937    25.4212   1.245538     7.0641     1.9061      7.877  0.000e+00
      3.821    25.5492   1.246811     7.0523     1.9761      7.903  0.000e+00
      3.719    25.6394   1.258350     7.1090     2.0667      7.924  0.000e+00
      3.646    25.6849   1.208104     6.7964     2.1775      7.947  0.000e+00
      3.577    25.7601   1.180352     6.6173     2.2924      7.971  0.000e+00
      3.449    25.8834   1.185427     6.6305     2.3912      7.991  0.000e+00
      3.271    25.9800   1.197523     6.6896     2.4787      8.012  0.000e+00
      3.078    26.0202   1.182453     6.5932     2.5785      8.036  0.000e+00
      2.908    26.0529   1.167907     6.5012     2.6865      8.059  0.000e+00
      2.752    26.1127   1.164709     6.4737     2.7834      8.084  0.000e+00
      2.593    26.1820   1.158449     6.4266     2.8612      8.109  0.000e+00
      2.452    26.2488   1.158018     6.4149     2.9380      8.132  0.000e+00
      2.352    26.3036   1.157935     6.4069     3.0178      8.152  0.000e+00
      2.313    26.3436   1.158587     6.4054     3.0950      8.174  0.000e+00
      2.234    26.3751   1.158610     6.4012     3.1674      8.189  0.000e+00
      2.101    26.4047   1.158628     6.3973     3.2286      8.205  0.000e+00
      1.962    26.4243   1.158439     6.3935     3.2758      8.223  0.000e+00
      1.810    26.4339   1.158050     6.3899     3.3150      8.240  0.000e+00
      1.695    26.4415   1.158364     6.3907     3.3498      8.253  0.000e+00
      1.602    26.4572   1.158425     6.3889     3.3775      8.268  0.000e+00
      1.499    26.4735   1.159021     6.3903     3.4003      8.281  0.000e+00
      1.406    26.4857   1.159419     6.3910     3.4238      8.294  0.000e+00
      1.296    26.5001   1.159493     6.3895     3.4412      8.309  0.000e+00
      1.139    26.5122   1.160571     6.3943     3.4544      8.316  0.000e+00
      0.981    26.5315   1.161057     6.3945     3.4644      8.331  0.000e+00
      0.840    26.5536   1.161868     6.3963     3.4726      8.340  0.000e+00
      0.720    26.5727   1.162942     6.4001     3.4801      8.349  0.000e+00
      0.588    26.5967   1.163474     6.4000     3.4910      8.358  0.000e+00
      0.452    26.6183   1.163664     6.3982     3.5036      8.370  0.000e+00
      0.365    26.6379   1.163706     6.3958     3.5149      8.378  0.000e+00
      0.298    26.6522   1.163743     6.3941     3.5253      8.387  0.000e+00
      0.201    26.6611   1.163993     6.3944     3.5330      8.392  0.000e+00
      0.097    26.6692   1.164201     6.3945     3.5385      8.401  0.000e+00
      0.021    26.6768   1.163960     6.3921     3.5406      8.406  0.000e+00
     -0.016    26.6822   1.163298     6.3874     3.5346      8.412  0.000e+00
     -0.015    26.6806   1.163020     6.3860     3.5209      8.415  0.000e+00
     -0.014    26.6645   1.161974     6.3820     3.4931      8.422  0.000e+00
     -0.015    26.6426   1.161719     6.3834     3.4647      8.422  0.000e+00
     -0.015    26.6149   1.163284     6.3965     3.4425      8.428  0.000e+00
     -0.014    26.5899   1.167923     6.4274     3.4347      8.433  0.000e+00
     -0.015    26.5680   1.170790     6.4474     3.4333      8.434  0.000e+00
     -0.015    26.5446   1.173115     6.4644     3.4297      8.437  0.000e+00
     -0.015    26.5202   1.170507     6.4523     3.4043      8.437  0.000e+00
     -0.015    26.4984   0.855566     4.6076     3.3399      8.439  0.000e+00
     -0.014    26.4838   0.151921     0.7388     3.2457      8.438  0.000e+00
     -0.015    26.4730   0.146762     0.7128     3.1480      8.438  0.000e+00
     -0.015    26.4661   0.164916     0.8053     3.0587      8.441  0.000e+00
     -0.015    26.4612   0.161202     0.7865     2.9856      8.438  0.000e+00
     -0.015    26.4567   0.154238     0.7510     2.9256      8.434  0.000e+00
     -0.016    26.4513   0.158827     0.7745     2.8767      8.434  0.000e+00
     -0.015    26.4448   0.185914     0.9135     2.8390      8.432  0.000e+00
     -0.012    26.4374   0.164529     0.8038     2.8094      8.421  0.000e+00
     -0.012    26.4287   0.173417     0.8495     2.7853      8.402  0.000e+00
     -0.012    26.4191   0.145826     0.7089     2.7656      8.401  0.000e+00
     -0.012    26.4086   0.157580     0.7688     2.7497      8.403  0.000e+00
     -0.012    26.3971   0.141461     0.6870     2.7343      8.405  0.000e+00
     -0.013    26.3855   0.120465     0.5813     2.7227      8.409  0.000e+00
     -0.012    26.3737   0.113126     0.5446     2.7116      8.411  0.000e+00
     -0.012    26.3622   0.089885     0.4292     2.7025      8.415  0.000e+00
     -0.013    26.3504   0.078132     0.3715     2.6961      8.417  0.000e+00
     -0.013    26.3385   0.084794     0.4043     2.6907      8.415  0.000e+00
     -0.013    26.3269   0.092197     0.4410     2.6867      8.417  0.000e+00
     -0.012    26.3153   0.096061     0.4602     2.6848      8.415  0.000e+00
     -0.012    26.3033   0.093420     0.4472     2.6810      8.415  0.000e+00
     -0.012    26.2914   0.078119     0.3719     2.6765      8.415  0.000e+00
     -0.013    26.2795   0.073422     0.3490     2.6729      8.414  0.000e+00
     -0.013    26.2652   0.060915     0.2883     2.6687      8.417  0.000e+00
     -0.012    26.2431   0.049819     0.2350     2.6655      8.417  0.000e+00
     -0.013    26.2159   0.061369     0.2908     2.6613      8.415  0.000e+00
     -0.013    26.1893   0.060203     0.2853     2.6591      8.418  0.000e+00
     -0.013    26.1628   0.061964     0.2940     2.6556      8.414  0.000e+00
     -0.012    26.1380   0.065154     0.3096     2.6527      8.414  0.000e+00
     -0.013    26.1136   0.064728     0.3077     2.6512      8.415  0.000e+00
     -0.012    26.0965   0.058496     0.2775     2.6472      8.416  0.000e+00
     -0.011    26.0865   0.049955     0.2364     2.6441      8.416  0.000e+00
      0.024    26.0787   0.385666     1.9871     2.6434      8.432  0.000e+00
      0.266    26.1016   1.160096     6.4477     2.6416      8.465  0.000e+00
      0.257    26.2566   1.216049     6.7614     2.6408      8.483  0.000e+00
      0.077    26.4127   1.231237     6.8298     2.6440      8.496  0.000e+00
      0.171    26.4917   1.146846     6.3156     2.6454      8.501  0.000e+00
      0.350    26.5163   1.175399     6.4819     2.6462      8.501  0.000e+00
      0.233    26.5554   1.206463     6.6614     2.6470      8.508  0.000e+00
      0.003    26.5813   0.479788     2.4793     2.6497      8.515  0.000e+00
     -0.012    26.5117   0.161072     0.7850     2.6525      8.519  0.000e+00
      0.084    26.4291   0.623911     3.2909     2.6534      8.521  0.000e+00
      0.231    26.4278   1.123873     6.1877     2.6514      8.525  0.000e+00
      0.171    26.5104   1.085892     5.9522     2.6509      8.527  0.000e+00
     -0.009    26.5782   0.162872     0.7930     2.6510      8.533  0.000e+00
     -0.014    26.5697   0.112227     0.5379     2.6505      8.534  0.000e+00
     -0.016    26.5470   0.110269     0.5285     2.6494      8.539  0.000e+00
     -0.016    26.5364   0.087765     0.4173     2.6486      8.541  0.000e+00
     -0.015    26.5286   0.077934     0.3692     2.6472      8.542  0.000e+00
     -0.014    26.5209   0.071431     0.3376     2.6447      8.546  0.000e+00
     -0.017    26.5125   0.076371     0.3617     2.6452      8.546  0.000e+00
     -0.017    26.5038   0.074526     0.3528     2.6422      8.546  0.000e+00
     -0.015    26.4946   0.069148     0.3267     2.6420      8.549  0.000e+00
     -0.017    26.4845   0.068580     0.3240     2.6414      8.548  0.000e+00
     -0.016    26.4738   0.067237     0.3176     2.6401      8.548  0.000e+00
     -0.016    26.4630   0.065858     0.3110     2.6403      8.549  0.000e+00
     -0.016    26.4519   0.065710     0.3104     2.6394      8.549  0.000e+00
     -0.017    26.4404   0.064267     0.3034     2.6377      8.550  0.000e+00
     -0.017    26.4289   0.064705     0.3056     2.6372      8.549  0.000e+00
     -0.016    26.4175   0.061654     0.2910     2.6372      8.551  0.000e+00
     -0.015    26.4060   0.060216     0.2841     2.6367      8.552  0.000e+00
     -0.015    26.3944   0.062556     0.2955     2.6364      8.549  0.000e+00
     -0.021    26.3824   0.072709     0.3448     2.6361      8.549  0.000e+00
     -0.016    26.3653   0.113096     0.5446     2.6354      8.550  0.000e+00
     -0.018    26.3479   0.155583     0.7596     2.6375      8.547  0.000e+00
     -0.016    26.3340   0.120918     0.5842     2.6372      8.548  0.000e+00
     -0.015    26.3217   0.127770     0.6188     2.6363      8.545  0.000e+00
     -0.017    26.3102   0.137906     0.6702     2.6371      8.538  0.000e+00
     -0.015    26.2993   0.137460     0.6681     2.6363      8.536  0.000e+00
     -0.016    26.2886   0.175363     0.8620     2.6375      8.535  0.000e+00
     -0.015    26.2778   0.146284     0.7133     2.6387      8.536  0.000e+00
     -0.016    26.2670   0.118269     0.5717     2.6388      8.532  0.000e+00
     -0.015    26.2561   0.103455     0.4976     2.6371      8.531  0.000e+00
     -0.013    26.2455   0.093891     0.4501     2.6356      8.532  0.000e+00
     -0.013    26.2350   0.091664     0.4392     2.6337      8.530  0.000e+00
     -0.013    26.2248   0.095765     0.4596     2.6320      8.527  0.000e+00
     -0.012    26.2149   0.087060     0.4166     2.6308      8.528  0.000e+00
     -0.014    26.2047   0.073057     0.3478     2.6298      8.530  0.000e+00
     -0.012    26.1950   0.068964     0.3278     2.6304      8.522  0.000e+00
     -0.012    26.1845   0.098289     0.4726     2.6346      8.521  0.000e+00
     -0.012    26.1728   0.119643     0.5797     2.6385      8.519  0.000e+00
     -0.012    26.1604   0.109424     0.5285     2.6425      8.515  0.000e+00
     -0.012    26.1469   0.091541     0.4394     2.6446      8.514  0.000e+00
